1 # R.A.[deg]    Dec.[deg]    flux[Jy]
   -1.1883  -17.6449    2.7888
   12.6153   -7.2658    0.2000
    0.1340  -10.5301    7.7314
   -0.4368   -6.8538    7.6012
   10.3597   -8.7866    4.7603
    5.7318   -7.7757    7.6954
   11.8517  -16.6740    5.5511
   13.0464  -14.5912    5.8724
   13.8598  -12.0115    5.3388
    6.8898   -9.5065    6.3199
   12.0222   -4.9207    5.3050
   10.4529  -11.3048   13.3620
   13.7173   -4.3230    1.5000
   12.4127   -7.8606    0.2000
   14.0405   -4.7165    1.5780
    9.4063   -9.4287    1.7200
    9.3376  -12.9557    3.6992
   14.5350  -16.6663    4.4946
    0.4436   -9.3003    4.3444
    7.7294   -6.3165    6.6240
    4.2823  -11.3166    6.1678
    8.2784  -12.4335    7.2537
   12.9191  -11.3889   10.3348
   13.7158  -14.9347    8.6692
    5.4328  -12.2185    1.1502
    7.8802  -10.8133    0.2000
   10.6166   -9.7937    7.7058
    8.6866  -10.2870    0.2000
   11.3582   -7.2490    5.2003
   11.7997   -9.5081    5.1064
    5.8152   -1.8369   11.6815
    9.2043   -8.5959    4.7924
    0.4056   -1.8798    3.4780
   15.1541  -13.2540    5.7074
    7.1691   -7.6305    5.7374
    4.5827  -11.1711    5.2101
    8.8572   -7.2994    3.1743
    3.5711   -7.3273    1.3322
    9.9061  -19.8371    5.9495
    7.4770  -15.9717    0.9714
   19.8000  -16.4846    1.9034
   15.1231   -8.1917    8.9936
   -1.2360   -3.3841    3.7433
   11.9860  -11.4707    4.5790
    3.7084   -6.3445    7.6995
    8.8523   -7.5451    4.0997
   10.7398  -14.7323    8.0881
   13.3648   -8.2114    3.9648
    8.7713  -13.3835    8.0384
   17.0934   -3.1768    6.8880
    7.8358  -10.1465    4.3610
   11.4738   -2.6380    2.4029
   12.9913  -11.9128    1.8707
   10.3833   -7.3475    4.1898
   13.9643  -10.2826    3.6856
   11.4545  -19.0988    3.7740
    6.4713  -14.4196    7.9506
    1.8758   -7.2437    4.1069
   18.3637  -10.2470    8.4310
    7.2796  -15.0343    3.4051
   10.4651  -12.8187    7.9177
   12.5343   -8.8772    3.4332
   10.5112  -14.4686    5.5297
    5.9287   -5.6127    7.9122
    7.8953  -12.8832    3.7581
    9.4380   -1.8601    3.6852
   16.6553  -14.8594   11.0102
    6.1263   -9.1036    7.8530
   13.5310  -16.8446    3.7040
   11.3888  -13.2563    6.9468
    8.9476  -12.6696    3.9198
    5.2436   -8.1940    7.1177
    8.7214   -5.7604    9.2475
    9.6099   -8.6478    0.1865
    3.3877  -11.6788    8.0866
   10.8648   -6.3303    9.3739
    6.2997   -6.4050    5.1424
    9.5759   -9.4591   10.2388
   11.5130   -7.4294    5.4662
    5.9291   -8.1424    1.2886
    8.7028  -14.4413    0.2000
   11.5753   -6.5819    3.9998
    1.7386  -12.9574    7.1406
   14.6619  -12.7176    5.9522
   20.9101   -9.2037    6.2408
   14.3173  -11.3838    3.2687
    8.5790  -10.5932    5.4320
   11.9288   -7.3209    0.0840
    5.3381   -5.2893    2.7197
   18.4504  -10.8908    2.5436
   14.2332   -8.5254    6.5592
   13.5431  -11.0724    4.9575
    6.0586   -8.9668    1.5334
   11.4398   -8.0200    4.9714
    7.4877  -12.7759    2.9306
    8.5986   -8.7632    2.9999
    7.4350   -7.2950    7.5924
    5.3842   -9.5846    5.3403
    5.9106   -2.2157    6.1951
    9.0555  -12.7385    7.6519